FP M5 Header Date: 8/6/2013
 Resolution (nm): 1.000000
Start Wavelength (nm): 380.000000
End: Wavelength (nm): 530.000000
Constant Wavelength (nm): 364.000000
Integration Time (ms): 100.000000
 Spectrum: Emisson
Sample:B
-1.824
-1.794
-1.833
-1.845
-1.816
-1.820
-1.833
-1.846
-1.837
-1.824
-1.844
-1.825
-1.820
-1.841
-1.837
-1.843
-1.849
-1.840
-1.855
-1.822
-1.834
-1.830
-1.840
-1.831
-1.851
-1.855
-1.839
-1.847
-1.827
-1.838
-1.848
-1.831
-1.851
-1.834
-1.844
-1.842
-1.840
-1.834
-1.813
-1.840
-1.843
-1.854
-1.847
-1.853
-1.836
-1.860
-1.858
-1.844
-1.851
-1.836
-1.837
-1.843
-1.836
-1.826
-1.831
-1.848
-1.825
-1.860
-1.834
-1.828
-1.827
-1.851
-1.848
-1.829
-1.834
-1.847
-1.826
-1.835
-1.844
-1.828
-1.821
-1.845
-1.833
-1.804
-1.827
-1.829
-1.812
-1.825
-1.844
-1.835
-1.836
-1.789
-1.807
-1.797
-1.814
-1.790
-1.766
-1.801
-1.791
-1.803
-1.805
-1.763
-1.799
-1.787
-1.794
-1.778
-1.786
-1.784
-1.838
-1.814
-1.853
-1.834
-1.823
-1.799
-1.849
-1.825
-1.852
-1.860
-1.859
-1.796
-1.764
-1.785
-1.788
-1.800
-1.772
-1.782
-1.801
-1.794
-1.775
-1.795
-1.760
-1.799
-1.761
-1.765
-1.793
-1.779
-1.785
-1.801
-1.791
-1.794
-1.781
-1.784
-1.785
-1.775
-1.794
-1.776
-1.781
-1.806
-1.803
-1.782
-1.788
-1.798
-1.783
-1.774
-1.800
-1.792
-1.784
-1.775
-1.771
-1.756
-1.782
