FP M5 Header Date: 8/6/2013
 Resolution (nm): 1.000000
Start Wavelength (nm): 270.000000
End: Wavelength (nm): 420.000000
Constant Wavelength (nm): 450.000000
Integration Time (ms): 100.000000
 Spectrum: Excitation
Sample:A
-1.932
-1.930
-1.931
-1.931
-1.931
-1.931
-1.931
-1.930
-1.930
-1.931
-1.930
-1.929
-1.930
-1.930
-1.929
-1.929
-1.929
-1.928
-1.928
-1.928
-1.928
-1.927
-1.928
-1.927
-1.928
-1.927
-1.925
-1.926
-1.925
-1.924
-1.924
-1.923
-1.922
-1.921
-1.921
-1.919
-1.918
-1.917
-1.915
-1.913
-1.912
-1.911
-1.909
-1.908
-1.905
-1.904
-1.902
-1.900
-1.896
-1.894
-1.890
-1.889
-1.885
-1.882
-1.877
-1.872
-1.867
-1.859
-1.857
-1.855
-1.851
-1.850
-1.846
-1.844
-1.844
-1.841
-1.834
-1.831
-1.823
-1.817
-1.809
-1.799
-1.787
-1.774
-1.768
-1.762
-1.760
-1.763
-1.762
-1.763
-1.762
-1.765
-1.767
-1.765
-1.763
-1.753
-1.748
-1.740
-1.725
-1.708
-1.697
-1.675
-1.660
-1.654
-1.650
-1.657
-1.666
-1.683
-1.697
-1.715
-1.730
-1.743
-1.751
-1.756
-1.762
-1.760
-1.757
-1.752
-1.741
-1.732
-1.718
-1.703
-1.688
-1.683
-1.673
-1.681
-1.692
-1.717
-1.749
-1.777
-1.804
-1.832
-1.856
-1.871
-1.886
-1.894
-1.903
-1.908
-1.912
-1.914
-1.917
-1.919
-1.921
-1.923
-1.925
-1.925
-1.927
-1.928
-1.929
-1.929
-1.930
-1.930
-1.930
-1.931
-1.931
-1.930
-1.930
-1.931
-1.930
-1.931
-1.931
