FP M5 Header Date: 3/15/2014
 Resolution (nm): 1.000000
Start Wavelength (nm): 270.000000
End: Wavelength (nm): 420.000000
Constant Wavelength (nm): 450.000000
Integration Time (ms): 100.000000
 Spectrum: Excitation
Sample:A
-1.956
-1.956
-1.956
-1.957
-1.956
-1.957
-1.956
-1.956
-1.956
-1.957
-1.957
-1.955
-1.956
-1.956
-1.956
-1.956
-1.956
-1.956
-1.955
-1.956
-1.955
-1.956
-1.956
-1.956
-1.956
-1.956
-1.956
-1.955
-1.955
-1.955
-1.955
-1.955
-1.955
-1.955
-1.954
-1.955
-1.954
-1.948
-1.953
-1.952
-1.952
-1.952
-1.952
-1.952
-1.951
-1.951
-1.951
-1.951
-1.952
-1.950
-1.950
-1.948
-1.947
-1.947
-1.946
-1.946
-1.945
-1.945
-1.944
-1.943
-1.943
-1.942
-1.942
-1.941
-1.938
-1.939
-1.937
-1.936
-1.937
-1.937
-1.933
-1.934
-1.932
-1.930
-1.930
-1.931
-1.928
-1.926
-1.928
-1.925
-1.926
-1.926
-1.926
-1.924
-1.924
-1.920
-1.920
-1.919
-1.919
-1.921
-1.918
-1.913
-1.912
-1.909
-1.911
-1.914
-1.914
-1.910
-1.911
-1.920
-1.919
-1.919
-1.921
-1.921
-1.919
-1.923
-1.921
-1.919
-1.923
-1.920
-1.918
-1.919
-1.921
-1.917
-1.919
-1.920
-1.920
-1.924
-1.926
-1.931
-1.932
-1.937
-1.940
-1.941
-1.945
-1.947
-1.947
-1.951
-1.951
-1.951
-1.953
-1.953
-1.954
-1.954
-1.954
-1.955
-1.954
-1.956
-1.955
-1.955
-1.955
-1.955
-1.956
-1.956
-1.956
-1.956
-1.957
-1.955
-1.956
-1.956
-1.955
