FP M5 Header Date: 3/15/2014
 Resolution (nm): 1.000000
Start Wavelength (nm): 380.000000
End: Wavelength (nm): 530.000000
Constant Wavelength (nm): 360.000000
Integration Time (ms): 100.000000
 Spectrum: Emisson
Sample:B
-1.827
-1.834
-1.828
-1.819
-1.812
-1.816
-1.807
-1.814
-1.820
-1.833
-1.838
-1.831
-1.811
-1.823
-1.817
-1.817
-1.826
-1.818
-1.828
-1.836
-1.723
-1.830
-1.840
-1.810
-1.818
-1.830
-1.824
-1.794
-1.850
-1.836
-1.831
-1.808
-1.834
-1.840
-1.828
-1.833
-1.837
-1.819
-1.835
-1.825
-1.805
-1.832
-1.828
-1.834
-1.843
-1.821
-1.829
-1.828
-1.834
-1.799
-1.835
-1.823
-1.804
-1.818
-1.823
-1.836
-1.839
-1.799
-1.824
-1.822
-1.820
-1.801
-1.811
-1.792
-1.812
-1.807
-1.810
-1.803
-1.803
-1.763
-1.835
-1.808
-1.824
-1.757
-1.817
-1.792
-1.799
-1.802
-1.779
-1.795
-1.785
-1.774
-1.768
-1.785
-1.784
-1.762
-1.782
-1.766
-1.782
-1.773
-1.746
-1.755
-1.769
-1.785
-1.784
-1.745
-1.732
-1.763
-1.741
-1.758
-1.744
-1.772
-1.744
-1.758
-1.762
-1.761
-1.759
-1.792
-1.765
-1.633
-1.756
-1.764
-1.776
-1.757
-1.782
-1.751
-1.758
-1.751
-1.794
-1.737
-1.743
-1.771
-1.774
-1.746
-1.747
-1.737
-1.766
-1.748
-1.778
-1.754
-1.751
-1.753
-1.739
-1.747
-1.769
-1.757
-1.747
-1.770
-1.746
-1.785
-1.699
-1.770
-1.772
-1.765
-1.744
-1.758
-1.765
-1.753
-1.763
-1.759
-1.761
