FP M5 Header Date: 8/6/2013
 Resolution (nm): 1.000000
Start Wavelength (nm): 380.000000
End: Wavelength (nm): 530.000000
Constant Wavelength (nm): 364.000000
Integration Time (ms): 100.000000
 Spectrum: Emisson
Sample:A
-1.912
-1.910
-1.907
-1.901
-1.899
-1.893
-1.884
-1.879
-1.873
-1.864
-1.856
-1.847
-1.838
-1.829
-1.818
-1.808
-1.792
-1.786
-1.769
-1.761
-1.749
-1.740
-1.731
-1.718
-1.714
-1.707
-1.699
-1.695
-1.687
-1.683
-1.678
-1.678
-1.676
-1.666
-1.666
-1.658
-1.655
-1.649
-1.641
-1.627
-1.624
-1.619
-1.609
-1.601
-1.598
-1.592
-1.590
-1.583
-1.582
-1.580
-1.580
-1.586
-1.584
-1.590
-1.599
-1.603
-1.606
-1.611
-1.620
-1.624
-1.631
-1.638
-1.641
-1.651
-1.652
-1.657
-1.658
-1.663
-1.663
-1.668
-1.667
-1.669
-1.674
-1.670
-1.676
-1.678
-1.685
-1.686
-1.689
-1.696
-1.696
-1.701
-1.709
-1.715
-1.722
-1.727
-1.730
-1.733
-1.742
-1.751
-1.753
-1.760
-1.764
-1.768
-1.771
-1.775
-1.779
-1.782
-1.788
-1.792
-1.792
-1.797
-1.799
-1.803
-1.804
-1.808
-1.812
-1.814
-1.818
-1.819
-1.823
-1.826
-1.831
-1.833
-1.834
-1.841
-1.844
-1.844
-1.847
-1.853
-1.856
-1.859
-1.861
-1.864
-1.866
-1.869
-1.870
-1.872
-1.875
-1.877
-1.877
-1.881
-1.882
-1.883
-1.884
-1.888
-1.889
-1.888
-1.892
-1.894
-1.894
-1.896
-1.897
-1.897
-1.899
-1.900
-1.901
-1.903
-1.905
-1.905
-1.905
